;content of C:\Users\Bruker\AppData\Local\Temp\92fetmp-50337042.raw - (Diffrac Plus V4 file)
_FILEVERSION = 3
_SAMPLE = Commander Sample ID
_+SAMPLE
_USER = Lab Manager
_GONIOMETER_CODE = 21
_STAGE_CODE = 4
; Goniometer : D8 theta/theta, stage : Open eulerian craddle
_SAMPLE_CHANGER_CODE = 0
_ATTACHMENTS_CODE = 0
_GONIOMETER_RADIUS = 415
_MONOCHROMATOR = 0
; Incident beam monochromator : None
_BETA_FILTER = N
_ANALYZER_CODE = 0
; Received beam analyzer : None
_DATEMEASURED = 09-Dec-2020 13:42:57
_RUNTIME = 12.36928
_WL_UNIT = A
_WL1 = 1.5406
_WL2 = 1.54439
_WL3 = 1.39222
_WLRATIO = 0.5
_ANODE = Cu
_V4_INF_USER = Lab Manager
_V4_INF_SAMPLEID = Commander Sample ID
_V4_INF_CREATOR = V5Converter
_V4_INF_CREATOR_VERSION = 3.3.47.0
_V4_INF_SUBSTRATE = Si (no database)
_V4_INF_LAYER = Si (no database)

; Data for range 1
_DRIVE = COUPLED
_STEPTIME = 76.8
_STEPSIZE = 0.02026
_STEPMODE = C
_START = 20
_THETA = 9.9639
_2THETA = 20
_KHI = -0.25
_PHI = 0
_X = -10.255
_Y = -0.555
_Z = 0.7095
_DETECTORSLIT = out
_AUX2 = 0
_TIMESTARTED = 0
_KV = 40
_MA = 40
_RANGE_WL = 1.5406
_3DPLANE = 0
_V4_PSD2THETA = 9999
_V4_PSDCHANNEL1 = 0
_V4_PSDAPERTURE = 2.083855
_V4_PSDTYPE = 5
_V4_PSDFIXED = 0
_V4_COUNTERS_MASK = 1
_V4_DRIVES_MASK = 0
_V4_ENCODERS_MASK = 0
_2THETACOUNTS = 1
; 2THETA	Cnt2_D1	
20.000000	26.000000	
20.020260	24.000000	
20.040519	24.000000	
20.060779	25.000000	
20.081039	31.000000	
20.101299	17.000000	
20.121558	25.000000	
20.141818	16.000000	
20.162078	19.000000	
20.182337	19.000000	
20.202597	20.000000	
20.222857	15.000000	
20.243116	20.000000	
20.263376	20.000000	
20.283636	24.000000	
20.303896	17.000000	
20.324155	31.000000	
20.344415	27.000000	
20.364675	16.000000	
20.384934	15.000000	
20.405194	21.000000	
20.425454	17.000000	
20.445713	24.000000	
20.465973	15.000000	
20.486233	16.000000	
20.506493	18.000000	
20.526752	14.000000	
20.547012	22.000000	
20.567272	25.000000	
20.587531	15.000000	
20.607791	17.000000	
20.628051	33.000000	
20.648310	18.000000	
20.668570	12.000000	
20.688830	21.000000	
20.709090	27.000000	
20.729349	15.000000	
20.749609	24.000000	
20.769869	26.000000	
20.790128	28.000000	
20.810388	25.000000	
20.830648	23.000000	
20.850907	19.000000	
20.871167	21.000000	
20.891427	24.000000	
20.911687	20.000000	
20.931946	13.000000	
20.952206	14.000000	
20.972466	21.000000	
20.992725	15.000000	
21.012985	17.000000	
21.033245	21.000000	
21.053504	17.000000	
21.073764	17.000000	
21.094024	19.000000	
21.114284	20.000000	
21.134543	21.000000	
21.154803	18.000000	
21.175063	25.000000	
21.195322	16.000000	
21.215582	23.000000	
21.235842	16.000000	
21.256101	23.000000	
21.276361	18.000000	
21.296621	17.000000	
21.316881	16.000000	
21.337140	16.000000	
21.357400	17.000000	
21.377660	27.000000	
21.397919	12.000000	
21.418179	30.000000	
21.438439	19.000000	
21.458698	17.000000	
21.478958	26.000000	
21.499218	16.000000	
21.519478	21.000000	
21.539737	18.000000	
21.559997	20.000000	
21.580257	24.000000	
21.600516	27.000000	
21.620776	23.000000	
21.641036	19.000000	
21.661295	21.000000	
21.681555	20.000000	
21.701815	13.000000	
21.722075	19.000000	
21.742334	21.000000	
21.762594	17.000000	
21.782854	19.000000	
21.803113	17.000000	
21.823373	19.000000	
21.843633	18.000000	
21.863893	22.000000	
21.884152	22.000000	
21.904412	16.000000	
21.924672	24.000000	
21.944931	21.000000	
21.965191	19.000000	
21.985451	19.000000	
22.005710	22.000000	
22.025970	16.000000	
22.046230	29.000000	
22.066490	19.000000	
22.086749	24.000000	
22.107009	31.000000	
22.127269	28.000000	
22.147528	12.000000	
22.167788	22.000000	
22.188048	21.000000	
22.208307	15.000000	
22.228567	24.000000	
22.248827	20.000000	
22.269087	13.000000	
22.289346	17.000000	
22.309606	22.000000	
22.329866	17.000000	
22.350125	20.000000	
22.370385	16.000000	
22.390645	19.000000	
22.410904	22.000000	
22.431164	20.000000	
22.451424	24.000000	
22.471684	17.000000	
22.491943	18.000000	
22.512203	25.000000	
22.532463	22.000000	
22.552722	23.000000	
22.572982	21.000000	
22.593242	23.000000	
22.613501	23.000000	
22.633761	13.000000	
22.654021	20.000000	
22.674281	31.000000	
22.694540	23.000000	
22.714800	17.000000	
22.735060	14.000000	
22.755319	19.000000	
22.775579	18.000000	
22.795839	18.000000	
22.816098	25.000000	
22.836358	20.000000	
22.856618	17.000000	
22.876878	20.000000	
22.897137	18.000000	
22.917397	19.000000	
22.937657	15.000000	
22.957916	8.000000	
22.978176	20.000000	
22.998436	12.000000	
23.018695	22.000000	
23.038955	19.000000	
23.059215	14.000000	
23.079475	10.000000	
23.099734	19.000000	
23.119994	22.000000	
23.140254	23.000000	
23.160513	16.000000	
23.180773	13.000000	
23.201033	19.000000	
23.221292	21.000000	
23.241552	18.000000	
23.261812	15.000000	
23.282072	23.000000	
23.302331	17.000000	
23.322591	18.000000	
23.342851	13.000000	
23.363110	13.000000	
23.383370	23.000000	
23.403630	16.000000	
23.423890	23.000000	
23.444149	16.000000	
23.464409	15.000000	
23.484669	24.000000	
23.504928	18.000000	
23.525188	21.000000	
23.545448	23.000000	
23.565707	12.000000	
23.585967	19.000000	
23.606227	13.000000	
23.626487	21.000000	
23.646746	16.000000	
23.667006	13.000000	
23.687266	23.000000	
23.707525	19.000000	
23.727785	14.000000	
23.748045	15.000000	
23.768304	26.000000	
23.788564	16.000000	
23.808824	16.000000	
23.829084	13.000000	
23.849343	16.000000	
23.869603	11.000000	
23.889863	10.000000	
23.910122	17.000000	
23.930382	25.000000	
23.950642	19.000000	
23.970901	16.000000	
23.991161	17.000000	
24.011421	16.000000	
24.031681	13.000000	
24.051940	18.000000	
24.072200	10.000000	
24.092460	21.000000	
24.112719	21.000000	
24.132979	16.000000	
24.153239	21.000000	
24.173498	22.000000	
24.193758	20.000000	
24.214018	6.000000	
24.234278	20.000000	
24.254537	16.000000	
24.274797	22.000000	
24.295057	16.000000	
24.315316	15.000000	
24.335576	22.000000	
24.355836	17.000000	
24.376095	18.000000	
24.396355	18.000000	
24.416615	16.000000	
24.436875	21.000000	
24.457134	20.000000	
24.477394	16.000000	
24.497654	18.000000	
24.517913	20.000000	
24.538173	21.000000	
24.558433	12.000000	
24.578692	16.000000	
24.598952	18.000000	
24.619212	11.000000	
24.639472	17.000000	
24.659731	27.000000	
24.679991	14.000000	
24.700251	18.000000	
24.720510	19.000000	
24.740770	17.000000	
24.761030	14.000000	
24.781289	14.000000	
24.801549	12.000000	
24.821809	14.000000	
24.842069	20.000000	
24.862328	23.000000	
24.882588	21.000000	
24.902848	20.000000	
24.923107	10.000000	
24.943367	12.000000	
24.963627	17.000000	
24.983886	12.000000	
25.004146	26.000000	
25.024406	17.000000	
25.044666	18.000000	
25.064925	13.000000	
25.085185	23.000000	
25.105445	15.000000	
25.125704	14.000000	
25.145964	15.000000	
25.166224	16.000000	
25.186484	17.000000	
25.206743	21.000000	
25.227003	19.000000	
25.247263	22.000000	
25.267522	13.000000	
25.287782	16.000000	
25.308042	15.000000	
25.328301	19.000000	
25.348561	14.000000	
25.368821	18.000000	
25.389081	9.000000	
25.409340	15.000000	
25.429600	11.000000	
25.449860	21.000000	
25.470119	13.000000	
25.490379	13.000000	
25.510639	10.000000	
25.530898	11.000000	
25.551158	18.000000	
25.571418	28.000000	
25.591678	17.000000	
25.611937	23.000000	
25.632197	13.000000	
25.652457	19.000000	
25.672716	18.000000	
25.692976	15.000000	
25.713236	15.000000	
25.733495	13.000000	
25.753755	16.000000	
25.774015	13.000000	
25.794275	16.000000	
25.814534	20.000000	
25.834794	15.000000	
25.855054	19.000000	
25.875313	24.000000	
25.895573	18.000000	
25.915833	8.000000	
25.936092	20.000000	
25.956352	19.000000	
25.976612	14.000000	
25.996872	11.000000	
26.017131	18.000000	
26.037391	17.000000	
26.057651	17.000000	
26.077910	20.000000	
26.098170	22.000000	
26.118430	25.000000	
26.138689	15.000000	
26.158949	11.000000	
26.179209	19.000000	
26.199469	19.000000	
26.219728	20.000000	
26.239988	10.000000	
26.260248	17.000000	
26.280507	16.000000	
26.300767	16.000000	
26.321027	10.000000	
26.341286	17.000000	
26.361546	13.000000	
26.381806	10.000000	
26.402066	19.000000	
26.422325	18.000000	
26.442585	11.000000	
26.462845	17.000000	
26.483104	15.000000	
26.503364	11.000000	
26.523624	14.000000	
26.543883	20.000000	
26.564143	14.000000	
26.584403	9.000000	
26.604663	18.000000	
26.624922	21.000000	
26.645182	14.000000	
26.665442	14.000000	
26.685701	21.000000	
26.705961	19.000000	
26.726221	10.000000	
26.746481	15.000000	
26.766740	13.000000	
26.787000	14.000000	
26.807260	19.000000	
26.827519	14.000000	
26.847779	7.000000	
26.868039	14.000000	
26.888298	17.000000	
26.908558	11.000000	
26.928818	17.000000	
26.949078	14.000000	
26.969337	18.000000	
26.989597	20.000000	
27.009857	22.000000	
27.030116	12.000000	
27.050376	18.000000	
27.070636	16.000000	
27.090895	18.000000	
27.111155	10.000000	
27.131415	10.000000	
27.151675	12.000000	
27.171934	17.000000	
27.192194	17.000000	
27.212454	12.000000	
27.232713	22.000000	
27.252973	15.000000	
27.273233	11.000000	
27.293492	12.000000	
27.313752	17.000000	
27.334012	21.000000	
27.354272	10.000000	
27.374531	8.000000	
27.394791	17.000000	
27.415051	10.000000	
27.435310	15.000000	
27.455570	12.000000	
27.475830	14.000000	
27.496089	13.000000	
27.516349	16.000000	
27.536609	17.000000	
27.556869	7.000000	
27.577128	15.000000	
27.597388	10.000000	
27.617648	13.000000	
27.637907	12.000000	
27.658167	12.000000	
27.678427	19.000000	
27.698686	17.000000	
27.718946	14.000000	
27.739206	16.000000	
27.759466	12.000000	
27.779725	12.000000	
27.799985	14.000000	
27.820245	17.000000	
27.840504	18.000000	
27.860764	20.000000	
27.881024	14.000000	
27.901283	13.000000	
27.921543	11.000000	
27.941803	11.000000	
27.962063	15.000000	
27.982322	9.000000	
28.002582	10.000000	
28.022842	21.000000	
28.043101	6.000000	
28.063361	12.000000	
28.083621	11.000000	
28.103880	15.000000	
28.124140	12.000000	
28.144400	12.000000	
28.164660	8.000000	
28.184919	21.000000	
28.205179	16.000000	
28.225439	13.000000	
28.245698	13.000000	
28.265958	15.000000	
28.286218	13.000000	
28.306477	12.000000	
28.326737	10.000000	
28.346997	15.000000	
28.367257	13.000000	
28.387516	11.000000	
28.407776	5.000000	
28.428036	12.000000	
28.448295	15.000000	
28.468555	6.000000	
28.488815	17.000000	
28.509075	19.000000	
28.529334	10.000000	
28.549594	15.000000	
28.569854	13.000000	
28.590113	10.000000	
28.610373	12.000000	
28.630633	17.000000	
28.650892	19.000000	
28.671152	12.000000	
28.691412	11.000000	
28.711672	14.000000	
28.731931	19.000000	
28.752191	14.000000	
28.772451	12.000000	
28.792710	9.000000	
28.812970	18.000000	
28.833230	6.000000	
28.853489	10.000000	
28.873749	21.000000	
28.894009	13.000000	
28.914269	10.000000	
28.934528	8.000000	
28.954788	11.000000	
28.975048	12.000000	
28.995307	9.000000	
29.015567	8.000000	
29.035827	13.000000	
29.056086	10.000000	
29.076346	12.000000	
29.096606	12.000000	
29.116866	20.000000	
29.137125	17.000000	
29.157385	14.000000	
29.177645	17.000000	
29.197904	10.000000	
29.218164	11.000000	
29.238424	16.000000	
29.258683	18.000000	
29.278943	18.000000	
29.299203	17.000000	
29.319463	14.000000	
29.339722	11.000000	
29.359982	15.000000	
29.380242	16.000000	
29.400501	14.000000	
29.420761	16.000000	
29.441021	14.000000	
29.461280	17.000000	
29.481540	21.000000	
29.501800	7.000000	
29.522060	9.000000	
29.542319	16.000000	
29.562579	13.000000	
29.582839	14.000000	
29.603098	15.000000	
29.623358	11.000000	
29.643618	13.000000	
29.663877	14.000000	
29.684137	11.000000	
29.704397	9.000000	
29.724657	11.000000	
29.744916	9.000000	
29.765176	12.000000	
29.785436	12.000000	
29.805695	14.000000	
29.825955	10.000000	
29.846215	12.000000	
29.866474	21.000000	
29.886734	12.000000	
29.906994	16.000000	
29.927254	18.000000	
29.947513	11.000000	
29.967773	17.000000	
29.988033	16.000000	
30.008292	12.000000	
30.028552	12.000000	
30.048812	10.000000	
30.069071	17.000000	
30.089331	18.000000	
30.109591	16.000000	
30.129851	19.000000	
30.150110	20.000000	
30.170370	11.000000	
30.190630	14.000000	
30.210889	6.000000	
30.231149	19.000000	
30.251409	22.000000	
30.271669	11.000000	
30.291928	17.000000	
30.312188	18.000000	
30.332448	13.000000	
30.352707	16.000000	
30.372967	26.000000	
30.393227	19.000000	
30.413486	16.000000	
30.433746	13.000000	
30.454006	14.000000	
30.474266	19.000000	
30.494525	12.000000	
30.514785	12.000000	
30.535045	14.000000	
30.555304	22.000000	
30.575564	22.000000	
30.595824	17.000000	
30.616083	22.000000	
30.636343	23.000000	
30.656603	13.000000	
30.676863	26.000000	
30.697122	23.000000	
30.717382	20.000000	
30.737642	23.000000	
30.757901	25.000000	
30.778161	15.000000	
30.798421	20.000000	
30.818680	23.000000	
30.838940	20.000000	
30.859200	19.000000	
30.879460	21.000000	
30.899719	13.000000	
30.919979	29.000000	
30.940239	22.000000	
30.960498	33.000000	
30.980758	22.000000	
31.001018	22.000000	
31.021277	26.000000	
31.041537	28.000000	
31.061797	26.000000	
31.082057	23.000000	
31.102316	30.000000	
31.122576	31.000000	
31.142836	25.000000	
31.163095	44.000000	
31.183355	32.000000	
31.203615	28.000000	
31.223874	35.000000	
31.244134	23.000000	
31.264394	31.000000	
31.284654	32.000000	
31.304913	41.000000	
31.325173	43.000000	
31.345433	28.000000	
31.365692	44.000000	
31.385952	30.000000	
31.406212	34.000000	
31.426471	37.000000	
31.446731	28.000000	
31.466991	35.000000	
31.487251	38.000000	
31.507510	29.000000	
31.527770	41.000000	
31.548030	33.000000	
31.568289	30.000000	
31.588549	25.000000	
31.608809	25.000000	
31.629068	35.000000	
31.649328	40.000000	
31.669588	38.000000	
31.689848	26.000000	
31.710107	33.000000	
31.730367	30.000000	
31.750627	21.000000	
31.770886	25.000000	
31.791146	21.000000	
31.811406	20.000000	
31.831666	19.000000	
31.851925	18.000000	
31.872185	22.000000	
31.892445	17.000000	
31.912704	8.000000	
31.932964	11.000000	
31.953224	16.000000	
31.973483	13.000000	
31.993743	17.000000	
32.014003	23.000000	
32.034263	20.000000	
32.054522	13.000000	
32.074782	17.000000	
32.095042	19.000000	
32.115301	23.000000	
32.135561	21.000000	
32.155821	16.000000	
32.176080	15.000000	
32.196340	15.000000	
32.216600	10.000000	
32.236860	15.000000	
32.257119	14.000000	
32.277379	8.000000	
32.297639	13.000000	
32.317898	16.000000	
32.338158	15.000000	
32.358418	7.000000	
32.378677	9.000000	
32.398937	9.000000	
32.419197	11.000000	
32.439457	12.000000	
32.459716	11.000000	
32.479976	10.000000	
32.500236	6.000000	
32.520495	15.000000	
32.540755	8.000000	
32.561015	14.000000	
32.581274	12.000000	
32.601534	10.000000	
32.621794	9.000000	
32.642054	16.000000	
32.662313	9.000000	
32.682573	7.000000	
32.702833	10.000000	
32.723092	12.000000	
32.743352	11.000000	
32.763612	6.000000	
32.783871	16.000000	
32.804131	8.000000	
32.824391	9.000000	
32.844651	11.000000	
32.864910	8.000000	
32.885170	15.000000	
32.905430	8.000000	
32.925689	8.000000	
32.945949	10.000000	
32.966209	8.000000	
32.986468	11.000000	
33.006728	9.000000	
33.026988	7.000000	
33.047248	7.000000	
33.067507	6.000000	
33.087767	11.000000	
33.108027	12.000000	
33.128286	14.000000	
33.148546	14.000000	
33.168806	12.000000	
33.189065	5.000000	
33.209325	11.000000	
33.229585	7.000000	
33.249845	12.000000	
33.270104	9.000000	
33.290364	8.000000	
33.310624	13.000000	
33.330883	7.000000	
33.351143	8.000000	
33.371403	10.000000	
33.391662	8.000000	
33.411922	9.000000	
33.432182	8.000000	
33.452442	12.000000	
33.472701	12.000000	
33.492961	10.000000	
33.513221	11.000000	
33.533480	10.000000	
33.553740	10.000000	
33.574000	6.000000	
33.594260	10.000000	
33.614519	11.000000	
33.634779	6.000000	
33.655039	8.000000	
33.675298	10.000000	
33.695558	8.000000	
33.715818	8.000000	
33.736077	11.000000	
33.756337	5.000000	
33.776597	17.000000	
33.796857	12.000000	
33.817116	5.000000	
33.837376	7.000000	
33.857636	15.000000	
33.877895	8.000000	
33.898155	8.000000	
33.918415	7.000000	
33.938674	11.000000	
33.958934	14.000000	
33.979194	9.000000	
33.999454	6.000000	
34.019713	15.000000	
34.039973	8.000000	
34.060233	9.000000	
34.080492	8.000000	
34.100752	6.000000	
34.121012	13.000000	
34.141271	10.000000	
34.161531	5.000000	
34.181791	4.000000	
34.202051	8.000000	
34.222310	9.000000	
34.242570	12.000000	
34.262830	7.000000	
34.283089	14.000000	
34.303349	16.000000	
34.323609	8.000000	
34.343868	10.000000	
34.364128	6.000000	
34.384388	19.000000	
34.404648	9.000000	
34.424907	10.000000	
34.445167	10.000000	
34.465427	8.000000	
34.485686	13.000000	
34.505946	6.000000	
34.526206	11.000000	
34.546465	6.000000	
34.566725	12.000000	
34.586985	12.000000	
34.607245	9.000000	
34.627504	6.000000	
34.647764	5.000000	
34.668024	13.000000	
34.688283	4.000000	
34.708543	6.000000	
34.728803	5.000000	
34.749062	7.000000	
34.769322	6.000000	
34.789582	3.000000	
34.809842	12.000000	
34.830101	12.000000	
34.850361	10.000000	
34.870621	5.000000	
34.890880	12.000000	
34.911140	8.000000	
34.931400	7.000000	
34.951659	15.000000	
34.971919	8.000000	
34.992179	6.000000	
35.012439	8.000000	
35.032698	10.000000	
35.052958	8.000000	
35.073218	4.000000	
35.093477	4.000000	
35.113737	9.000000	
35.133997	9.000000	
35.154257	10.000000	
35.174516	7.000000	
35.194776	6.000000	
35.215036	6.000000	
35.235295	6.000000	
35.255555	14.000000	
35.275815	8.000000	
35.296074	4.000000	
35.316334	7.000000	
35.336594	11.000000	
35.356854	9.000000	
35.377113	7.000000	
35.397373	7.000000	
35.417633	8.000000	
35.437892	10.000000	
35.458152	4.000000	
35.478412	8.000000	
35.498671	9.000000	
35.518931	9.000000	
35.539191	8.000000	
35.559451	5.000000	
35.579710	9.000000	
35.599970	7.000000	
35.620230	8.000000	
35.640489	9.000000	
35.660749	7.000000	
35.681009	6.000000	
35.701268	12.000000	
35.721528	8.000000	
35.741788	9.000000	
35.762048	12.000000	
35.782307	4.000000	
35.802567	7.000000	
35.822827	8.000000	
35.843086	7.000000	
35.863346	12.000000	
35.883606	6.000000	
35.903865	11.000000	
35.924125	9.000000	
35.944385	6.000000	
35.964645	9.000000	
35.984904	9.000000	
36.005164	4.000000	
36.025424	10.000000	
36.045683	12.000000	
36.065943	9.000000	
36.086203	9.000000	
36.106462	8.000000	
36.126722	6.000000	
36.146982	10.000000	
36.167242	12.000000	
36.187501	5.000000	
36.207761	9.000000	
36.228021	8.000000	
36.248280	6.000000	
36.268540	11.000000	
36.288800	7.000000	
36.309059	9.000000	
36.329319	9.000000	
36.349579	11.000000	
36.369839	8.000000	
36.390098	12.000000	
36.410358	10.000000	
36.430618	5.000000	
36.450877	11.000000	
36.471137	10.000000	
36.491397	9.000000	
36.511656	8.000000	
36.531916	16.000000	
36.552176	11.000000	
36.572436	9.000000	
36.592695	8.000000	
36.612955	14.000000	
36.633215	7.000000	
36.653474	8.000000	
36.673734	12.000000	
36.693994	12.000000	
36.714253	12.000000	
36.734513	14.000000	
36.754773	14.000000	
36.775033	8.000000	
36.795292	4.000000	
36.815552	13.000000	
36.835812	6.000000	
36.856071	6.000000	
36.876331	7.000000	
36.896591	10.000000	
36.916851	10.000000	
36.937110	8.000000	
36.957370	6.000000	
36.977630	5.000000	
36.997889	15.000000	
37.018149	8.000000	
37.038409	8.000000	
37.058668	13.000000	
37.078928	9.000000	
37.099188	8.000000	
37.119448	8.000000	
37.139707	14.000000	
37.159967	5.000000	
37.180227	12.000000	
37.200486	11.000000	
37.220746	7.000000	
37.241006	11.000000	
37.261265	4.000000	
37.281525	13.000000	
37.301785	5.000000	
