time(sec.) 	 T(degreeC.) 	 Q(W.) 
0 	 29.492000 	 100.000000 
1 	 29.483000 	 100.000000 
2 	 29.394000 	 100.000000 
3 	 29.355000 	 100.000000 
4 	 29.356000 	 100.000000 
5 	 29.346000 	 100.000000 
6 	 29.371000 	 100.000000 
7 	 29.331000 	 100.000000 
8 	 29.308000 	 100.000000 
9 	 29.270000 	 100.000000 
10 	 29.281000 	 100.000000 
11 	 29.303000 	 100.000000 
12 	 29.322000 	 100.000000 
13 	 29.307000 	 100.000000 
14 	 29.308000 	 100.000000 
15 	 29.322000 	 100.000000 
16 	 29.312000 	 100.000000 
17 	 29.266000 	 100.000000 
18 	 29.244000 	 100.000000 
19 	 29.196000 	 100.000000 
20 	 29.250000 	 100.000000 
21 	 29.231000 	 100.000000 
22 	 29.193000 	 100.000000 
23 	 29.144000 	 100.000000 
24 	 29.214000 	 100.000000 
25 	 29.248000 	 100.000000 
26 	 29.275000 	 100.000000 
27 	 29.259000 	 100.000000 
28 	 29.293000 	 100.000000 
29 	 29.252000 	 100.000000 
30 	 29.284000 	 100.000000 
31 	 29.304000 	 100.000000 
32 	 29.291000 	 100.000000 
33 	 29.271000 	 100.000000 
34 	 29.278000 	 100.000000 
35 	 29.284000 	 100.000000 
36 	 29.333000 	 100.000000 
37 	 29.369000 	 100.000000 
38 	 29.389000 	 100.000000 
39 	 29.412000 	 100.000000 
40 	 29.481000 	 100.000000 
41 	 29.522000 	 100.000000 
42 	 29.534000 	 100.000000 
43 	 29.533000 	 100.000000 
44 	 29.548000 	 100.000000 
45 	 29.575000 	 100.000000 
46 	 29.606000 	 100.000000 
47 	 29.605000 	 100.000000 
48 	 29.629000 	 100.000000 
49 	 29.676000 	 100.000000 
50 	 29.651000 	 100.000000 
51 	 29.691000 	 100.000000 
52 	 29.775000 	 100.000000 
53 	 29.860000 	 100.000000 
54 	 29.908000 	 100.000000 
55 	 29.928000 	 100.000000 
56 	 29.984000 	 100.000000 
57 	 30.002000 	 100.000000 
58 	 29.952000 	 100.000000 
59 	 29.959000 	 100.000000 
60 	 30.003000 	 100.000000 
61 	 30.080000 	 100.000000 
62 	 30.128000 	 100.000000 
63 	 30.209000 	 100.000000 
64 	 30.176000 	 100.000000 
65 	 30.211000 	 100.000000 
66 	 30.226000 	 100.000000 
67 	 30.233000 	 100.000000 
68 	 30.222000 	 100.000000 
69 	 30.208000 	 100.000000 
70 	 30.366000 	 100.000000 
71 	 30.393000 	 100.000000 
72 	 30.503000 	 100.000000 
73 	 30.549000 	 100.000000 
74 	 30.602000 	 100.000000 
75 	 30.634000 	 100.000000 
76 	 30.672000 	 100.000000 
77 	 30.723000 	 100.000000 
78 	 30.778000 	 100.000000 
79 	 30.814000 	 100.000000 
80 	 30.887000 	 100.000000 
81 	 30.997000 	 100.000000 
82 	 31.092000 	 100.000000 
83 	 31.158000 	 100.000000 
84 	 31.112000 	 100.000000 
85 	 31.086000 	 100.000000 
86 	 31.233000 	 100.000000 
87 	 31.316000 	 100.000000 
88 	 31.319000 	 100.000000 
89 	 31.351000 	 100.000000 
90 	 31.416000 	 100.000000 
91 	 31.489000 	 100.000000 
92 	 31.589000 	 100.000000 
93 	 31.605000 	 100.000000 
94 	 31.593000 	 100.000000 
95 	 31.576000 	 100.000000 
96 	 31.536000 	 100.000000 
97 	 31.593000 	 100.000000 
98 	 31.615000 	 100.000000 
99 	 31.605000 	 100.000000 
100 	 31.679000 	 100.000000 
101 	 31.649000 	 100.000000 
102 	 31.656000 	 100.000000 
103 	 31.743000 	 100.000000 
104 	 31.777000 	 100.000000 
105 	 31.886000 	 100.000000 
106 	 32.074000 	 100.000000 
107 	 32.210000 	 100.000000 
108 	 32.307000 	 100.000000 
109 	 32.400000 	 100.000000 
110 	 32.382000 	 100.000000 
111 	 32.399000 	 100.000000 
112 	 32.381000 	 100.000000 
113 	 32.368000 	 100.000000 
114 	 32.276000 	 100.000000 
115 	 32.410000 	 100.000000 
116 	 32.490000 	 100.000000 
117 	 32.519000 	 100.000000 
118 	 32.520000 	 100.000000 
119 	 32.723000 	 100.000000 
120 	 32.886000 	 100.000000 
121 	 32.953000 	 100.000000 
122 	 32.940000 	 100.000000 
123 	 32.978000 	 100.000000 
124 	 33.064000 	 100.000000 
125 	 33.092000 	 100.000000 
126 	 33.141000 	 100.000000 
127 	 33.144000 	 100.000000 
128 	 33.084000 	 100.000000 
129 	 33.047000 	 100.000000 
130 	 33.120000 	 100.000000 
131 	 33.293000 	 100.000000 
132 	 33.269000 	 100.000000 
133 	 33.291000 	 100.000000 
134 	 33.291000 	 100.000000 
135 	 33.246000 	 100.000000 
136 	 33.217000 	 100.000000 
137 	 33.251000 	 100.000000 
138 	 33.328000 	 100.000000 
139 	 33.429000 	 100.000000 
140 	 33.415000 	 100.000000 
141 	 33.449000 	 100.000000 
142 	 33.546000 	 100.000000 
143 	 33.611000 	 100.000000 
144 	 33.615000 	 100.000000 
145 	 33.626000 	 100.000000 
146 	 33.621000 	 100.000000 
147 	 33.585000 	 100.000000 
148 	 33.561000 	 100.000000 
149 	 33.569000 	 100.000000 
150 	 33.627000 	 100.000000 
151 	 33.621000 	 100.000000 
152 	 33.642000 	 100.000000 
153 	 33.701000 	 100.000000 
154 	 33.765000 	 100.000000 
155 	 33.768000 	 100.000000 
156 	 33.780000 	 100.000000 
157 	 33.885000 	 100.000000 
158 	 33.938000 	 100.000000 
159 	 34.042000 	 100.000000 
160 	 34.130000 	 100.000000 
161 	 34.157000 	 100.000000 
162 	 34.134000 	 100.000000 
163 	 34.108000 	 100.000000 
164 	 34.126000 	 100.000000 
165 	 34.145000 	 100.000000 
166 	 34.242000 	 100.000000 
167 	 34.273000 	 100.000000 
168 	 34.292000 	 100.000000 
169 	 34.258000 	 100.000000 
170 	 34.281000 	 100.000000 
171 	 34.357000 	 100.000000 
172 	 34.444000 	 100.000000 
173 	 34.477000 	 100.000000 
174 	 34.544000 	 100.000000 
175 	 34.574000 	 100.000000 
176 	 34.559000 	 100.000000 
177 	 34.702000 	 100.000000 
178 	 34.789000 	 100.000000 
179 	 34.875000 	 100.000000 
180 	 34.878000 	 100.000000 
181 	 34.841000 	 100.000000 
182 	 34.922000 	 100.000000 
183 	 35.034000 	 100.000000 
184 	 35.069000 	 100.000000 
185 	 34.993000 	 100.000000 
186 	 34.955000 	 100.000000 
187 	 35.119000 	 100.000000 
188 	 35.134000 	 100.000000 
189 	 35.125000 	 100.000000 
190 	 35.134000 	 100.000000 
191 	 35.093000 	 100.000000 
192 	 35.056000 	 100.000000 
193 	 35.146000 	 100.000000 
194 	 35.202000 	 100.000000 
195 	 35.242000 	 100.000000 
196 	 35.185000 	 100.000000 
197 	 35.276000 	 100.000000 
198 	 35.214000 	 100.000000 
199 	 35.137000 	 100.000000 
200 	 35.098000 	 100.000000 
201 	 35.202000 	 100.000000 
202 	 35.312000 	 100.000000 
203 	 35.385000 	 100.000000 
204 	 35.392000 	 100.000000 
205 	 35.390000 	 100.000000 
206 	 35.432000 	 100.000000 
207 	 35.460000 	 100.000000 
208 	 35.429000 	 100.000000 
209 	 35.474000 	 100.000000 
210 	 35.618000 	 100.000000 
211 	 35.746000 	 100.000000 
212 	 35.922000 	 100.000000 
213 	 35.999000 	 100.000000 
214 	 36.038000 	 100.000000 
215 	 35.990000 	 100.000000 
216 	 36.038000 	 100.000000 
217 	 36.079000 	 100.000000 
218 	 36.084000 	 100.000000 
219 	 36.084000 	 100.000000 
220 	 36.055000 	 100.000000 
221 	 36.048000 	 100.000000 
222 	 36.041000 	 100.000000 
223 	 36.080000 	 100.000000 
224 	 36.104000 	 100.000000 
225 	 36.177000 	 100.000000 
226 	 36.198000 	 100.000000 
227 	 36.208000 	 100.000000 
228 	 36.252000 	 100.000000 
229 	 36.292000 	 100.000000 
230 	 36.299000 	 100.000000 
231 	 36.311000 	 100.000000 
232 	 36.365000 	 100.000000 
233 	 36.462000 	 100.000000 
234 	 36.559000 	 100.000000 
235 	 36.663000 	 100.000000 
236 	 36.721000 	 100.000000 
237 	 36.616000 	 100.000000 
238 	 36.683000 	 100.000000 
239 	 36.848000 	 100.000000 
240 	 36.907000 	 100.000000 
241 	 36.890000 	 100.000000 
242 	 36.934000 	 100.000000 
243 	 37.006000 	 100.000000 
244 	 37.054000 	 100.000000 
245 	 37.011000 	 100.000000 
246 	 37.015000 	 100.000000 
247 	 37.136000 	 100.000000 
248 	 37.231000 	 100.000000 
249 	 37.263000 	 100.000000 
250 	 37.210000 	 100.000000 
251 	 37.117000 	 100.000000 
252 	 37.117000 	 100.000000 
253 	 37.206000 	 100.000000 
254 	 37.281000 	 100.000000 
255 	 37.281000 	 100.000000 
256 	 37.296000 	 100.000000 
257 	 37.350000 	 100.000000 
258 	 37.430000 	 100.000000 
259 	 37.423000 	 100.000000 
260 	 37.430000 	 100.000000 
261 	 37.466000 	 100.000000 
262 	 37.490000 	 100.000000 
263 	 37.512000 	 100.000000 
264 	 37.512000 	 100.000000 
265 	 37.470000 	 100.000000 
266 	 37.395000 	 100.000000 
267 	 37.367000 	 100.000000 
268 	 37.346000 	 100.000000 
269 	 37.493000 	 100.000000 
270 	 37.537000 	 100.000000 
271 	 37.459000 	 100.000000 
272 	 37.618000 	 100.000000 
273 	 37.684000 	 100.000000 
274 	 37.727000 	 100.000000 
275 	 37.725000 	 100.000000 
276 	 37.692000 	 100.000000 
277 	 37.608000 	 100.000000 
278 	 37.659000 	 100.000000 
279 	 37.757000 	 100.000000 
280 	 37.879000 	 100.000000 
281 	 37.956000 	 100.000000 
282 	 38.088000 	 100.000000 
283 	 38.234000 	 100.000000 
284 	 38.192000 	 100.000000 
285 	 38.085000 	 100.000000 
286 	 37.999000 	 100.000000 
287 	 38.039000 	 100.000000 
288 	 38.020000 	 100.000000 
289 	 38.025000 	 100.000000 
290 	 38.076000 	 100.000000 
291 	 38.126000 	 100.000000 
292 	 38.110000 	 100.000000 
293 	 38.110000 	 100.000000 
294 	 38.192000 	 100.000000 
295 	 38.342000 	 100.000000 
296 	 38.380000 	 100.000000 
297 	 38.373000 	 100.000000 
298 	 38.344000 	 100.000000 
299 	 38.358000 	 100.000000 
300 	 38.321000 	 100.000000 
301 	 38.427000 	 100.000000 
302 	 38.443000 	 100.000000 
303 	 38.463000 	 100.000000 
304 	 38.477000 	 100.000000 
305 	 38.481000 	 100.000000 
306 	 38.443000 	 100.000000 
307 	 38.404000 	 100.000000 
308 	 38.398000 	 100.000000 
309 	 38.391000 	 100.000000 
310 	 38.394000 	 100.000000 
311 	 38.385000 	 100.000000 
312 	 38.399000 	 100.000000 
313 	 38.385000 	 100.000000 
314 	 38.458000 	 100.000000 
315 	 38.467000 	 100.000000 
316 	 38.495000 	 100.000000 
317 	 38.554000 	 100.000000 
318 	 38.662000 	 100.000000 
319 	 38.646000 	 100.000000 
320 	 38.833000 	 100.000000 
321 	 38.922000 	 100.000000 
322 	 39.045000 	 100.000000 
323 	 39.130000 	 100.000000 
324 	 39.118000 	 100.000000 
325 	 39.140000 	 100.000000 
326 	 39.148000 	 100.000000 
327 	 39.108000 	 100.000000 
328 	 39.090000 	 100.000000 
329 	 39.180000 	 100.000000 
330 	 39.285000 	 100.000000 
331 	 39.305000 	 100.000000 
332 	 39.266000 	 100.000000 
333 	 39.337000 	 100.000000 
334 	 39.376000 	 100.000000 
335 	 39.377000 	 100.000000 
336 	 39.325000 	 100.000000 
337 	 39.276000 	 100.000000 
338 	 39.230000 	 100.000000 
339 	 39.160000 	 100.000000 
340 	 39.169000 	 100.000000 
341 	 39.200000 	 100.000000 
342 	 39.383000 	 100.000000 
343 	 39.482000 	 100.000000 
344 	 39.565000 	 100.000000 
345 	 39.565000 	 100.000000 
346 	 39.558000 	 100.000000 
347 	 39.487000 	 100.000000 
348 	 39.494000 	 100.000000 
349 	 39.441000 	 100.000000 
350 	 39.456000 	 100.000000 
351 	 39.394000 	 100.000000 
352 	 39.409000 	 100.000000 
353 	 39.519000 	 100.000000 
354 	 39.533000 	 100.000000 
355 	 39.589000 	 100.000000 
356 	 39.511000 	 100.000000 
357 	 39.440000 	 100.000000 
358 	 39.503000 	 100.000000 
359 	 39.512000 	 100.000000 
360 	 39.349000 	 100.000000 
361 	 39.353000 	 100.000000 
362 	 39.395000 	 100.000000 
363 	 39.484000 	 100.000000 
364 	 39.599000 	 100.000000 
365 	 39.754000 	 22.968000 
366 	 39.892000 	 0.000000 
367 	 39.944000 	 0.000000 
368 	 39.894000 	 51.575000 
369 	 39.790000 	 100.000000 
370 	 39.819000 	 100.000000 
371 	 39.919000 	 0.000000 
372 	 40.008000 	 0.000000 
373 	 40.001000 	 0.000000 
374 	 40.027000 	 0.000000 
375 	 40.082000 	 0.000000 
376 	 40.103000 	 0.000000 
377 	 40.083000 	 2.823000 
378 	 40.078000 	 6.461000 
379 	 40.112000 	 0.000000 
380 	 40.089000 	 41.113000 
381 	 39.918000 	 100.000000 
382 	 39.942000 	 100.000000 
383 	 40.074000 	 0.000000 
384 	 40.148000 	 0.000000 
385 	 40.164000 	 0.000000 
386 	 40.110000 	 64.617000 
387 	 39.973000 	 100.000000 
388 	 39.987000 	 95.886000 
389 	 40.022000 	 51.519000 
390 	 39.990000 	 91.228000 
391 	 40.015000 	 49.660000 
392 	 40.069000 	 0.000000 
393 	 40.086000 	 0.000000 
394 	 40.117000 	 0.000000 
395 	 40.120000 	 0.000000 
396 	 40.088000 	 33.022000 
397 	 40.033000 	 90.755000 
398 	 40.005000 	 100.000000 
399 	 39.963000 	 100.000000 
400 	 40.039000 	 10.002000 
401 	 40.088000 	 0.000000 
402 	 40.077000 	 6.554000 
403 	 40.016000 	 80.168000 
404 	 40.038000 	 36.805000 
405 	 39.986000 	 95.496000 
406 	 39.947000 	 100.000000 
407 	 39.837000 	 100.000000 
408 	 39.777000 	 100.000000 
409 	 39.744000 	 100.000000 
410 	 39.675000 	 100.000000 
411 	 39.619000 	 100.000000 
412 	 39.568000 	 100.000000 
413 	 39.576000 	 100.000000 
414 	 39.595000 	 100.000000 
415 	 39.593000 	 100.000000 
416 	 39.624000 	 100.000000 
417 	 39.611000 	 100.000000 
418 	 39.595000 	 100.000000 
419 	 39.699000 	 78.996000 
420 	 39.736000 	 72.880000 
421 	 39.699000 	 100.000000 
422 	 39.707000 	 100.000000 
423 	 39.666000 	 100.000000 
424 	 39.620000 	 100.000000 
425 	 39.659000 	 100.000000 
426 	 39.612000 	 100.000000 
427 	 39.504000 	 100.000000 
428 	 39.312000 	 100.000000 
429 	 39.209000 	 100.000000 
430 	 39.319000 	 100.000000 
431 	 39.400000 	 100.000000 
432 	 39.491000 	 100.000000 
433 	 39.708000 	 45.687000 
434 	 39.882000 	 0.000000 
435 	 39.849000 	 64.216000 
436 	 39.783000 	 100.000000 
437 	 39.834000 	 69.516000 
438 	 39.863000 	 40.736000 
439 	 39.942000 	 0.000000 
440 	 39.903000 	 56.649000 
441 	 39.792000 	 100.000000 
442 	 39.794000 	 100.000000 
443 	 39.805000 	 100.000000 
444 	 39.786000 	 100.000000 
445 	 39.703000 	 100.000000 
446 	 39.731000 	 100.000000 
447 	 39.724000 	 100.000000 
448 	 39.687000 	 100.000000 
449 	 39.721000 	 100.000000 
450 	 39.734000 	 100.000000 
451 	 39.717000 	 100.000000 
452 	 39.659000 	 100.000000 
453 	 39.696000 	 100.000000 
454 	 39.692000 	 100.000000 
455 	 39.668000 	 100.000000 
456 	 39.726000 	 100.000000 
457 	 39.835000 	 0.000000 
458 	 39.864000 	 9.757000 
459 	 39.839000 	 70.216000 
460 	 39.883000 	 24.515000 
461 	 40.053000 	 0.000000 
462 	 40.140000 	 0.000000 
463 	 40.043000 	 62.220000 
464 	 39.989000 	 100.000000 
465 	 39.938000 	 100.000000 
466 	 39.823000 	 100.000000 
467 	 39.651000 	 100.000000 
468 	 39.742000 	 100.000000 
469 	 39.776000 	 79.653000 
470 	 39.792000 	 75.461000 
471 	 39.776000 	 100.000000 
472 	 39.722000 	 100.000000 
473 	 39.702000 	 100.000000 
474 	 39.766000 	 89.138000 
475 	 39.815000 	 44.206000 
476 	 39.897000 	 0.000000 
477 	 39.993000 	 0.000000 
478 	 40.004000 	 0.000000 
479 	 39.969000 	 24.523000 
480 	 39.979000 	 4.916000 
481 	 40.083000 	 0.000000 
482 	 40.155000 	 0.000000 
483 	 40.166000 	 0.000000 
484 	 40.188000 	 0.000000 
485 	 40.173000 	 1.838000 
486 	 40.042000 	 100.000000 
487 	 40.005000 	 100.000000 
488 	 39.977000 	 100.000000 
489 	 39.925000 	 100.000000 
490 	 39.791000 	 100.000000 
491 	 39.660000 	 100.000000 
492 	 39.652000 	 100.000000 
493 	 39.697000 	 100.000000 
494 	 39.697000 	 100.000000 
495 	 39.798000 	 25.358000 
496 	 39.785000 	 78.776000 
497 	 39.902000 	 0.000000 
498 	 39.834000 	 96.044000 
499 	 39.893000 	 18.795000 
500 	 39.958000 	 0.000000 
501 	 39.982000 	 0.000000 
502 	 39.975000 	 3.595000 
503 	 39.976000 	 9.096000 
504 	 39.958000 	 46.625000 
505 	 39.838000 	 100.000000 
506 	 39.781000 	 100.000000 
507 	 39.600000 	 100.000000 
508 	 39.531000 	 100.000000 
509 	 39.626000 	 100.000000 
510 	 39.590000 	 100.000000 
511 	 39.571000 	 100.000000 
512 	 39.675000 	 98.111000 
513 	 39.683000 	 100.000000 
514 	 39.691000 	 100.000000 
515 	 39.679000 	 100.000000 
516 	 39.670000 	 100.000000 
517 	 39.808000 	 0.463000 
518 	 39.830000 	 23.201000 
519 	 39.847000 	 50.091000 
520 	 39.806000 	 100.000000 
521 	 39.801000 	 100.000000 
522 	 39.813000 	 97.103000 
523 	 39.765000 	 100.000000 
524 	 39.758000 	 100.000000 
525 	 39.731000 	 100.000000 
526 	 39.650000 	 100.000000 
527 	 39.643000 	 100.000000 
528 	 39.621000 	 100.000000 
529 	 39.648000 	 100.000000 
530 	 39.716000 	 94.334000 
531 	 39.733000 	 98.499000 
532 	 39.764000 	 75.387000 
533 	 39.832000 	 21.414000 
534 	 39.844000 	 38.561000 
535 	 39.912000 	 0.000000 
536 	 39.852000 	 92.911000 
537 	 39.761000 	 100.000000 
538 	 39.683000 	 100.000000 
539 	 39.717000 	 100.000000 
540 	 39.666000 	 100.000000 
541 	 39.630000 	 100.000000 
542 	 39.799000 	 0.288000 
543 	 39.867000 	 0.000000 
544 	 39.809000 	 100.000000 
545 	 39.719000 	 100.000000 
546 	 39.722000 	 100.000000 
547 	 39.651000 	 100.000000 
548 	 39.562000 	 100.000000 
549 	 39.544000 	 100.000000 
550 	 39.482000 	 100.000000 
551 	 39.468000 	 100.000000 
552 	 39.549000 	 100.000000 
553 	 39.537000 	 100.000000 
554 	 39.563000 	 100.000000 
555 	 39.562000 	 100.000000 
556 	 39.604000 	 100.000000 
557 	 39.593000 	 100.000000 
558 	 39.624000 	 100.000000 
559 	 39.735000 	 37.964000 
560 	 39.916000 	 0.000000 
561 	 39.999000 	 0.000000 
562 	 39.870000 	 100.000000 
563 	 39.799000 	 100.000000 
564 	 39.794000 	 100.000000 
565 	 39.739000 	 100.000000 
566 	 39.728000 	 100.000000 
567 	 39.716000 	 100.000000 
568 	 39.755000 	 100.000000 
569 	 39.629000 	 100.000000 
570 	 39.640000 	 100.000000 
571 	 39.692000 	 100.000000 
572 	 39.573000 	 100.000000 
573 	 39.457000 	 100.000000 
574 	 39.485000 	 100.000000 
575 	 39.515000 	 100.000000 
576 	 39.511000 	 100.000000 
577 	 39.608000 	 100.000000 
578 	 39.628000 	 100.000000 
579 	 39.679000 	 95.702000 
580 	 39.655000 	 100.000000 
581 	 39.744000 	 55.566000 
582 	 39.779000 	 57.011000 
583 	 39.883000 	 0.000000 
584 	 39.991000 	 0.000000 
585 	 39.935000 	 33.507000 
586 	 39.781000 	 100.000000 
587 	 39.734000 	 100.000000 
588 	 39.772000 	 100.000000 
589 	 39.978000 	 0.000000 
590 	 40.037000 	 0.000000 
591 	 40.088000 	 0.000000 
592 	 40.096000 	 0.000000 
593 	 40.019000 	 72.052000 
594 	 39.992000 	 92.014000 
595 	 39.961000 	 100.000000 
596 	 39.907000 	 100.000000 
597 	 39.851000 	 100.000000 
598 	 39.903000 	 71.734000 
599 	 39.836000 	 100.000000 
600 	 39.874000 	 77.279000 
601 	 39.837000 	 100.000000 
602 	 39.749000 	 100.000000 
603 	 39.806000 	 95.805000 
604 	 39.898000 	 0.000000 
605 	 39.938000 	 0.000000 
606 	 39.926000 	 22.978000 
607 	 39.889000 	 78.703000 
608 	 39.946000 	 5.410000 
609 	 39.978000 	 0.000000 
610 	 40.017000 	 0.000000 
611 	 40.138000 	 0.000000 
612 	 40.123000 	 0.000000 
613 	 40.067000 	 71.379000 
614 	 40.045000 	 83.693000 
615 	 40.026000 	 93.856000 
616 	 40.021000 	 81.185000 
617 	 40.003000 	 100.000000 
618 	 40.014000 	 76.014000 
619 	 39.893000 	 100.000000 
620 	 39.779000 	 100.000000 
621 	 39.838000 	 91.407000 
622 	 39.758000 	 100.000000 
623 	 39.798000 	 100.000000 
624 	 39.847000 	 44.429000 
625 	 39.906000 	 0.000000 
626 	 39.937000 	 0.000000 
627 	 39.988000 	 0.000000 
628 	 39.859000 	 100.000000 
629 	 40.025000 	 0.000000 
630 	 40.132000 	 0.000000 
631 	 40.184000 	 0.000000 
632 	 40.117000 	 41.568000 
633 	 40.086000 	 65.318000 
634 	 40.090000 	 55.987000 
635 	 40.057000 	 83.364000 
636 	 40.052000 	 80.084000 
637 	 39.986000 	 100.000000 
638 	 39.950000 	 100.000000 
639 	 39.975000 	 90.679000 
640 	 39.978000 	 78.792000 
641 	 39.880000 	 100.000000 
642 	 39.904000 	 100.000000 
643 	 39.917000 	 92.724000 
644 	 39.915000 	 95.411000 
645 	 39.896000 	 100.000000 
646 	 39.817000 	 100.000000 
647 	 39.778000 	 100.000000 
648 	 39.751000 	 100.000000 
649 	 39.783000 	 100.000000 
650 	 39.862000 	 14.341000 
651 	 39.903000 	 0.000000 
652 	 39.880000 	 55.568000 
653 	 39.860000 	 85.449000 
