time(sec.) 	 T(degreeC.) 	 Q(W.) 
0 	 19.212000 	 100.000000 
1 	 19.160000 	 100.000000 
2 	 19.186000 	 100.000000 
3 	 19.208000 	 100.000000 
4 	 19.203000 	 100.000000 
5 	 19.158000 	 100.000000 
6 	 19.128000 	 100.000000 
7 	 19.142000 	 100.000000 
8 	 19.135000 	 100.000000 
9 	 19.115000 	 100.000000 
10 	 19.106000 	 100.000000 
11 	 19.094000 	 100.000000 
12 	 19.091000 	 100.000000 
13 	 19.103000 	 100.000000 
14 	 19.129000 	 100.000000 
15 	 19.126000 	 100.000000 
16 	 19.124000 	 100.000000 
17 	 19.136000 	 100.000000 
18 	 19.141000 	 100.000000 
19 	 19.159000 	 100.000000 
20 	 19.175000 	 100.000000 
21 	 19.203000 	 100.000000 
22 	 19.216000 	 100.000000 
23 	 19.246000 	 100.000000 
24 	 19.391000 	 100.000000 
25 	 19.437000 	 100.000000 
26 	 19.465000 	 100.000000 
27 	 19.494000 	 100.000000 
28 	 19.517000 	 100.000000 
29 	 19.547000 	 100.000000 
30 	 19.575000 	 100.000000 
31 	 19.588000 	 100.000000 
32 	 19.588000 	 100.000000 
33 	 19.606000 	 100.000000 
34 	 19.634000 	 100.000000 
35 	 19.659000 	 100.000000 
36 	 19.706000 	 100.000000 
37 	 19.743000 	 100.000000 
38 	 19.762000 	 100.000000 
39 	 19.759000 	 100.000000 
40 	 19.805000 	 100.000000 
41 	 19.838000 	 100.000000 
42 	 19.911000 	 100.000000 
43 	 19.985000 	 100.000000 
44 	 20.022000 	 100.000000 
45 	 20.044000 	 100.000000 
46 	 20.053000 	 100.000000 
47 	 20.086000 	 100.000000 
48 	 20.123000 	 100.000000 
49 	 20.193000 	 100.000000 
50 	 20.274000 	 100.000000 
51 	 20.316000 	 100.000000 
52 	 20.365000 	 100.000000 
53 	 20.401000 	 100.000000 
54 	 20.440000 	 100.000000 
55 	 20.478000 	 100.000000 
56 	 20.537000 	 100.000000 
57 	 20.600000 	 100.000000 
58 	 20.669000 	 100.000000 
59 	 20.706000 	 100.000000 
60 	 20.760000 	 100.000000 
61 	 20.816000 	 100.000000 
62 	 20.933000 	 100.000000 
63 	 21.025000 	 100.000000 
64 	 21.135000 	 100.000000 
65 	 21.203000 	 100.000000 
66 	 21.269000 	 100.000000 
67 	 21.267000 	 100.000000 
68 	 21.311000 	 100.000000 
69 	 21.418000 	 100.000000 
70 	 21.488000 	 100.000000 
71 	 21.538000 	 100.000000 
72 	 21.556000 	 100.000000 
73 	 21.644000 	 100.000000 
74 	 21.666000 	 100.000000 
75 	 21.736000 	 100.000000 
76 	 21.816000 	 100.000000 
77 	 21.821000 	 100.000000 
78 	 21.882000 	 100.000000 
79 	 21.930000 	 100.000000 
80 	 22.015000 	 100.000000 
81 	 22.160000 	 100.000000 
82 	 22.248000 	 100.000000 
83 	 22.398000 	 100.000000 
84 	 22.544000 	 100.000000 
85 	 22.614000 	 100.000000 
86 	 22.677000 	 100.000000 
87 	 22.689000 	 100.000000 
88 	 22.718000 	 100.000000 
89 	 22.777000 	 100.000000 
90 	 22.756000 	 100.000000 
91 	 22.790000 	 100.000000 
92 	 22.891000 	 100.000000 
93 	 22.988000 	 100.000000 
94 	 23.097000 	 100.000000 
95 	 23.131000 	 100.000000 
96 	 23.150000 	 100.000000 
97 	 23.181000 	 100.000000 
98 	 23.230000 	 100.000000 
99 	 23.269000 	 100.000000 
100 	 23.307000 	 100.000000 
101 	 23.334000 	 100.000000 
102 	 23.440000 	 100.000000 
103 	 23.554000 	 100.000000 
104 	 23.603000 	 100.000000 
105 	 23.636000 	 100.000000 
106 	 23.656000 	 100.000000 
107 	 23.663000 	 100.000000 
108 	 23.821000 	 100.000000 
109 	 23.950000 	 100.000000 
110 	 24.030000 	 100.000000 
111 	 24.097000 	 100.000000 
112 	 24.130000 	 100.000000 
113 	 24.123000 	 100.000000 
114 	 24.102000 	 100.000000 
115 	 24.085000 	 100.000000 
116 	 24.152000 	 100.000000 
117 	 24.173000 	 100.000000 
118 	 24.218000 	 100.000000 
119 	 24.235000 	 100.000000 
120 	 24.354000 	 100.000000 
121 	 24.409000 	 100.000000 
122 	 24.507000 	 100.000000 
123 	 24.521000 	 100.000000 
124 	 24.561000 	 100.000000 
125 	 24.639000 	 100.000000 
126 	 24.664000 	 100.000000 
127 	 24.721000 	 100.000000 
128 	 24.799000 	 100.000000 
129 	 24.988000 	 100.000000 
130 	 25.093000 	 100.000000 
131 	 25.184000 	 100.000000 
132 	 25.263000 	 100.000000 
133 	 25.307000 	 100.000000 
134 	 25.386000 	 100.000000 
135 	 25.433000 	 100.000000 
136 	 25.439000 	 100.000000 
137 	 25.475000 	 100.000000 
138 	 25.525000 	 100.000000 
139 	 25.557000 	 100.000000 
140 	 25.632000 	 100.000000 
141 	 25.789000 	 100.000000 
142 	 25.866000 	 100.000000 
143 	 25.881000 	 100.000000 
144 	 25.863000 	 100.000000 
145 	 25.866000 	 100.000000 
146 	 25.855000 	 100.000000 
147 	 25.905000 	 100.000000 
148 	 25.895000 	 100.000000 
149 	 25.851000 	 100.000000 
150 	 26.018000 	 100.000000 
151 	 26.126000 	 100.000000 
152 	 26.195000 	 100.000000 
153 	 26.173000 	 100.000000 
154 	 26.228000 	 100.000000 
155 	 26.234000 	 100.000000 
156 	 26.354000 	 100.000000 
157 	 26.421000 	 100.000000 
158 	 26.499000 	 100.000000 
159 	 26.545000 	 100.000000 
160 	 26.615000 	 100.000000 
161 	 26.737000 	 100.000000 
162 	 26.764000 	 100.000000 
163 	 26.790000 	 100.000000 
164 	 26.734000 	 100.000000 
165 	 26.727000 	 100.000000 
166 	 26.800000 	 100.000000 
167 	 26.846000 	 100.000000 
168 	 26.884000 	 100.000000 
169 	 26.911000 	 100.000000 
170 	 26.981000 	 100.000000 
171 	 27.108000 	 100.000000 
172 	 27.209000 	 100.000000 
173 	 27.198000 	 100.000000 
174 	 27.262000 	 100.000000 
175 	 27.328000 	 100.000000 
176 	 27.344000 	 100.000000 
177 	 27.429000 	 100.000000 
178 	 27.532000 	 100.000000 
179 	 27.592000 	 100.000000 
180 	 27.661000 	 100.000000 
181 	 27.712000 	 100.000000 
182 	 27.733000 	 100.000000 
183 	 27.709000 	 100.000000 
184 	 27.762000 	 100.000000 
185 	 27.841000 	 100.000000 
186 	 27.837000 	 100.000000 
187 	 27.932000 	 100.000000 
188 	 28.059000 	 100.000000 
189 	 28.170000 	 100.000000 
190 	 28.160000 	 100.000000 
191 	 28.165000 	 100.000000 
192 	 28.121000 	 100.000000 
193 	 28.048000 	 100.000000 
194 	 28.069000 	 100.000000 
195 	 28.072000 	 100.000000 
196 	 28.075000 	 100.000000 
197 	 28.275000 	 100.000000 
198 	 28.361000 	 100.000000 
199 	 28.364000 	 100.000000 
200 	 28.385000 	 100.000000 
201 	 28.393000 	 100.000000 
202 	 28.441000 	 100.000000 
203 	 28.557000 	 100.000000 
204 	 28.747000 	 100.000000 
205 	 28.805000 	 100.000000 
206 	 28.806000 	 100.000000 
207 	 28.764000 	 100.000000 
208 	 28.886000 	 100.000000 
209 	 29.167000 	 100.000000 
210 	 29.228000 	 100.000000 
211 	 29.262000 	 100.000000 
212 	 29.313000 	 100.000000 
213 	 29.196000 	 100.000000 
214 	 29.108000 	 100.000000 
215 	 29.107000 	 100.000000 
216 	 29.152000 	 100.000000 
217 	 29.131000 	 100.000000 
218 	 29.308000 	 100.000000 
219 	 29.484000 	 100.000000 
220 	 29.577000 	 100.000000 
221 	 29.609000 	 100.000000 
222 	 29.592000 	 100.000000 
223 	 29.601000 	 100.000000 
224 	 29.664000 	 100.000000 
225 	 29.635000 	 100.000000 
226 	 29.700000 	 100.000000 
227 	 29.737000 	 100.000000 
228 	 29.954000 	 100.000000 
229 	 30.024000 	 100.000000 
230 	 30.051000 	 100.000000 
231 	 30.013000 	 100.000000 
232 	 29.964000 	 100.000000 
233 	 30.087000 	 100.000000 
234 	 30.062000 	 100.000000 
235 	 30.142000 	 100.000000 
236 	 30.171000 	 100.000000 
237 	 30.131000 	 100.000000 
238 	 30.090000 	 100.000000 
239 	 30.107000 	 100.000000 
240 	 30.060000 	 100.000000 
241 	 30.057000 	 100.000000 
242 	 30.144000 	 100.000000 
243 	 30.155000 	 100.000000 
244 	 30.234000 	 100.000000 
245 	 30.369000 	 100.000000 
246 	 30.461000 	 100.000000 
247 	 30.558000 	 100.000000 
248 	 30.638000 	 100.000000 
249 	 30.574000 	 100.000000 
250 	 30.502000 	 100.000000 
251 	 30.445000 	 100.000000 
252 	 30.494000 	 100.000000 
253 	 30.591000 	 100.000000 
254 	 30.785000 	 100.000000 
255 	 30.942000 	 100.000000 
256 	 30.990000 	 100.000000 
257 	 31.030000 	 100.000000 
258 	 31.032000 	 100.000000 
259 	 31.009000 	 100.000000 
260 	 31.097000 	 100.000000 
261 	 31.219000 	 100.000000 
262 	 31.337000 	 100.000000 
263 	 31.476000 	 100.000000 
264 	 31.476000 	 100.000000 
265 	 31.506000 	 100.000000 
266 	 31.489000 	 100.000000 
267 	 31.525000 	 100.000000 
268 	 31.503000 	 100.000000 
269 	 31.528000 	 100.000000 
270 	 31.496000 	 100.000000 
271 	 31.379000 	 100.000000 
272 	 31.360000 	 100.000000 
273 	 31.428000 	 100.000000 
274 	 31.468000 	 100.000000 
275 	 31.524000 	 100.000000 
276 	 31.693000 	 100.000000 
277 	 31.800000 	 100.000000 
278 	 31.912000 	 100.000000 
279 	 31.980000 	 100.000000 
280 	 31.906000 	 100.000000 
281 	 31.886000 	 100.000000 
282 	 31.906000 	 100.000000 
283 	 31.917000 	 100.000000 
284 	 31.927000 	 100.000000 
285 	 31.965000 	 100.000000 
286 	 32.058000 	 100.000000 
287 	 32.176000 	 100.000000 
288 	 32.219000 	 100.000000 
289 	 32.121000 	 100.000000 
290 	 32.045000 	 100.000000 
291 	 31.978000 	 100.000000 
292 	 32.042000 	 100.000000 
293 	 32.240000 	 100.000000 
294 	 32.305000 	 100.000000 
295 	 32.329000 	 100.000000 
296 	 32.333000 	 100.000000 
297 	 32.469000 	 100.000000 
298 	 32.494000 	 100.000000 
299 	 32.458000 	 100.000000 
300 	 32.442000 	 100.000000 
301 	 32.513000 	 100.000000 
302 	 32.609000 	 100.000000 
303 	 32.619000 	 100.000000 
304 	 32.583000 	 100.000000 
305 	 32.580000 	 100.000000 
306 	 32.547000 	 100.000000 
307 	 32.758000 	 100.000000 
308 	 32.840000 	 100.000000 
309 	 32.927000 	 100.000000 
310 	 33.016000 	 100.000000 
311 	 33.099000 	 100.000000 
312 	 33.138000 	 100.000000 
313 	 33.161000 	 100.000000 
314 	 33.108000 	 100.000000 
315 	 33.089000 	 100.000000 
316 	 33.144000 	 100.000000 
317 	 33.072000 	 100.000000 
318 	 32.967000 	 100.000000 
319 	 33.036000 	 100.000000 
320 	 33.010000 	 100.000000 
321 	 32.997000 	 100.000000 
322 	 32.915000 	 100.000000 
323 	 32.992000 	 100.000000 
324 	 33.080000 	 100.000000 
325 	 33.162000 	 100.000000 
326 	 33.197000 	 100.000000 
327 	 33.229000 	 100.000000 
328 	 33.295000 	 100.000000 
329 	 33.359000 	 100.000000 
330 	 33.323000 	 100.000000 
331 	 33.315000 	 100.000000 
332 	 33.288000 	 100.000000 
333 	 33.334000 	 100.000000 
334 	 33.403000 	 100.000000 
335 	 33.391000 	 100.000000 
336 	 33.401000 	 100.000000 
337 	 33.520000 	 100.000000 
338 	 33.615000 	 100.000000 
339 	 33.631000 	 100.000000 
340 	 33.632000 	 100.000000 
341 	 33.654000 	 100.000000 
342 	 33.638000 	 100.000000 
343 	 33.644000 	 100.000000 
344 	 33.707000 	 100.000000 
345 	 33.742000 	 100.000000 
346 	 33.771000 	 100.000000 
347 	 33.811000 	 100.000000 
348 	 33.914000 	 100.000000 
349 	 33.956000 	 100.000000 
350 	 34.083000 	 100.000000 
351 	 34.185000 	 100.000000 
352 	 34.123000 	 100.000000 
353 	 33.998000 	 100.000000 
354 	 33.946000 	 100.000000 
355 	 33.990000 	 100.000000 
356 	 33.977000 	 100.000000 
357 	 33.981000 	 100.000000 
358 	 34.009000 	 100.000000 
359 	 34.163000 	 100.000000 
360 	 34.225000 	 100.000000 
361 	 34.214000 	 100.000000 
362 	 34.374000 	 100.000000 
363 	 34.426000 	 100.000000 
364 	 34.507000 	 100.000000 
365 	 34.682000 	 100.000000 
366 	 34.749000 	 100.000000 
367 	 34.778000 	 100.000000 
368 	 34.808000 	 100.000000 
369 	 34.742000 	 100.000000 
370 	 34.716000 	 100.000000 
371 	 34.673000 	 100.000000 
372 	 34.770000 	 100.000000 
373 	 34.906000 	 100.000000 
374 	 35.001000 	 100.000000 
375 	 35.008000 	 100.000000 
376 	 34.982000 	 100.000000 
377 	 34.879000 	 100.000000 
378 	 34.781000 	 100.000000 
379 	 34.753000 	 100.000000 
380 	 34.780000 	 100.000000 
381 	 34.771000 	 100.000000 
382 	 34.871000 	 100.000000 
383 	 34.891000 	 100.000000 
384 	 34.958000 	 100.000000 
385 	 34.950000 	 100.000000 
386 	 34.941000 	 100.000000 
387 	 35.158000 	 100.000000 
388 	 35.376000 	 100.000000 
389 	 35.418000 	 100.000000 
390 	 35.513000 	 100.000000 
391 	 35.580000 	 100.000000 
392 	 35.551000 	 100.000000 
393 	 35.596000 	 100.000000 
394 	 35.531000 	 100.000000 
395 	 35.319000 	 100.000000 
396 	 35.382000 	 100.000000 
397 	 35.376000 	 100.000000 
398 	 35.293000 	 100.000000 
399 	 35.355000 	 100.000000 
400 	 35.430000 	 100.000000 
401 	 35.526000 	 100.000000 
402 	 35.584000 	 100.000000 
403 	 35.594000 	 100.000000 
404 	 35.631000 	 100.000000 
405 	 35.704000 	 100.000000 
406 	 35.722000 	 100.000000 
407 	 35.700000 	 100.000000 
408 	 35.702000 	 100.000000 
409 	 35.810000 	 100.000000 
410 	 35.855000 	 100.000000 
411 	 35.926000 	 100.000000 
412 	 36.004000 	 100.000000 
413 	 36.090000 	 100.000000 
414 	 36.118000 	 100.000000 
415 	 36.142000 	 100.000000 
416 	 36.110000 	 100.000000 
417 	 36.105000 	 100.000000 
418 	 36.088000 	 100.000000 
419 	 36.027000 	 100.000000 
420 	 36.067000 	 100.000000 
421 	 36.089000 	 100.000000 
422 	 36.178000 	 100.000000 
423 	 36.224000 	 100.000000 
424 	 36.275000 	 100.000000 
425 	 36.139000 	 100.000000 
426 	 36.128000 	 100.000000 
427 	 36.074000 	 100.000000 
428 	 36.057000 	 100.000000 
429 	 36.107000 	 100.000000 
430 	 36.093000 	 100.000000 
431 	 36.035000 	 100.000000 
432 	 36.005000 	 100.000000 
433 	 36.057000 	 100.000000 
434 	 36.116000 	 100.000000 
435 	 36.135000 	 100.000000 
436 	 36.150000 	 100.000000 
437 	 36.317000 	 100.000000 
438 	 36.373000 	 100.000000 
439 	 36.386000 	 100.000000 
440 	 36.465000 	 100.000000 
441 	 36.523000 	 100.000000 
442 	 36.553000 	 100.000000 
443 	 36.677000 	 100.000000 
444 	 36.802000 	 100.000000 
445 	 36.840000 	 100.000000 
446 	 36.820000 	 100.000000 
447 	 36.852000 	 100.000000 
448 	 36.873000 	 100.000000 
449 	 36.842000 	 100.000000 
450 	 36.805000 	 100.000000 
451 	 36.812000 	 100.000000 
452 	 36.733000 	 100.000000 
453 	 36.683000 	 100.000000 
454 	 36.691000 	 100.000000 
455 	 36.795000 	 100.000000 
456 	 36.942000 	 100.000000 
457 	 36.989000 	 100.000000 
458 	 36.968000 	 100.000000 
459 	 36.957000 	 100.000000 
460 	 37.287000 	 100.000000 
461 	 37.456000 	 100.000000 
462 	 37.568000 	 100.000000 
463 	 37.464000 	 100.000000 
464 	 37.315000 	 100.000000 
465 	 37.291000 	 100.000000 
466 	 37.285000 	 100.000000 
467 	 37.260000 	 100.000000 
468 	 37.226000 	 100.000000 
469 	 37.224000 	 100.000000 
470 	 37.181000 	 100.000000 
471 	 37.113000 	 100.000000 
472 	 37.264000 	 100.000000 
473 	 37.251000 	 100.000000 
474 	 37.183000 	 100.000000 
475 	 37.334000 	 100.000000 
476 	 37.430000 	 100.000000 
477 	 37.353000 	 100.000000 
478 	 37.453000 	 100.000000 
479 	 37.608000 	 100.000000 
480 	 37.627000 	 100.000000 
481 	 37.643000 	 100.000000 
482 	 37.655000 	 100.000000 
483 	 37.814000 	 100.000000 
484 	 37.785000 	 100.000000 
485 	 37.656000 	 100.000000 
486 	 37.870000 	 100.000000 
487 	 38.030000 	 100.000000 
488 	 37.949000 	 100.000000 
489 	 37.920000 	 100.000000 
490 	 37.916000 	 100.000000 
491 	 37.842000 	 100.000000 
492 	 37.814000 	 100.000000 
493 	 37.775000 	 100.000000 
494 	 37.820000 	 100.000000 
495 	 37.770000 	 100.000000 
496 	 37.722000 	 100.000000 
497 	 37.718000 	 100.000000 
498 	 37.755000 	 100.000000 
499 	 37.921000 	 100.000000 
500 	 37.896000 	 100.000000 
501 	 37.722000 	 100.000000 
502 	 37.729000 	 100.000000 
503 	 37.742000 	 100.000000 
504 	 37.869000 	 100.000000 
505 	 37.968000 	 100.000000 
506 	 38.007000 	 100.000000 
507 	 38.139000 	 100.000000 
508 	 38.286000 	 100.000000 
509 	 38.321000 	 100.000000 
510 	 38.420000 	 100.000000 
511 	 38.412000 	 100.000000 
512 	 38.377000 	 100.000000 
513 	 38.407000 	 100.000000 
514 	 38.375000 	 100.000000 
515 	 38.340000 	 100.000000 
516 	 38.335000 	 100.000000 
517 	 38.343000 	 100.000000 
518 	 38.460000 	 100.000000 
519 	 38.436000 	 100.000000 
520 	 38.410000 	 100.000000 
521 	 38.338000 	 100.000000 
522 	 38.320000 	 100.000000 
523 	 38.332000 	 100.000000 
524 	 38.355000 	 100.000000 
525 	 38.441000 	 100.000000 
526 	 38.502000 	 100.000000 
527 	 38.433000 	 100.000000 
528 	 38.557000 	 100.000000 
529 	 38.563000 	 100.000000 
530 	 38.616000 	 100.000000 
531 	 38.766000 	 100.000000 
532 	 38.724000 	 100.000000 
533 	 38.693000 	 100.000000 
534 	 38.763000 	 100.000000 
535 	 38.835000 	 100.000000 
536 	 38.831000 	 100.000000 
537 	 38.879000 	 100.000000 
538 	 38.959000 	 100.000000 
539 	 39.021000 	 100.000000 
540 	 38.980000 	 100.000000 
541 	 39.007000 	 100.000000 
542 	 38.985000 	 100.000000 
543 	 38.870000 	 100.000000 
544 	 38.979000 	 100.000000 
545 	 39.182000 	 100.000000 
546 	 39.089000 	 100.000000 
547 	 39.074000 	 100.000000 
548 	 39.180000 	 100.000000 
549 	 39.209000 	 100.000000 
550 	 39.164000 	 100.000000 
551 	 39.081000 	 100.000000 
552 	 39.045000 	 100.000000 
553 	 39.094000 	 100.000000 
554 	 39.081000 	 100.000000 
555 	 39.033000 	 100.000000 
556 	 39.017000 	 100.000000 
557 	 39.196000 	 100.000000 
558 	 39.203000 	 100.000000 
559 	 39.111000 	 100.000000 
560 	 39.192000 	 100.000000 
561 	 39.351000 	 100.000000 
562 	 39.323000 	 100.000000 
563 	 39.304000 	 100.000000 
564 	 39.335000 	 100.000000 
565 	 39.350000 	 100.000000 
566 	 39.310000 	 100.000000 
567 	 39.237000 	 100.000000 
568 	 39.175000 	 100.000000 
569 	 39.222000 	 100.000000 
570 	 39.327000 	 100.000000 
571 	 39.355000 	 100.000000 
572 	 39.515000 	 100.000000 
573 	 39.672000 	 100.000000 
574 	 39.732000 	 100.000000 
575 	 39.593000 	 100.000000 
576 	 39.473000 	 100.000000 
577 	 39.451000 	 100.000000 
578 	 39.397000 	 100.000000 
579 	 39.779000 	 100.000000 
580 	 39.894000 	 52.839000 
581 	 39.879000 	 60.230000 
582 	 39.733000 	 100.000000 
583 	 39.654000 	 100.000000 
584 	 39.523000 	 100.000000 
585 	 39.543000 	 100.000000 
586 	 39.598000 	 100.000000 
587 	 39.564000 	 100.000000 
588 	 39.552000 	 100.000000 
589 	 39.614000 	 100.000000 
590 	 39.776000 	 100.000000 
591 	 39.777000 	 100.000000 
592 	 39.708000 	 100.000000 
593 	 39.798000 	 100.000000 
594 	 39.876000 	 61.912000 
595 	 39.961000 	 19.014000 
596 	 39.924000 	 37.620000 
597 	 39.906000 	 46.909000 
598 	 39.997000 	 1.194000 
599 	 40.016000 	 0.000000 
600 	 40.075000 	 0.000000 
601 	 40.016000 	 0.000000 
602 	 39.986000 	 6.933000 
603 	 39.909000 	 45.206000 
604 	 39.893000 	 53.051000 
605 	 39.863000 	 68.218000 
606 	 39.964000 	 17.526000 
607 	 39.968000 	 15.672000 
608 	 39.980000 	 9.973000 
609 	 39.946000 	 26.889000 
610 	 40.051000 	 0.000000 
611 	 40.172000 	 0.000000 
612 	 40.192000 	 0.000000 
613 	 40.172000 	 0.000000 
614 	 40.104000 	 0.000000 
615 	 40.009000 	 0.000000 
616 	 39.887000 	 56.366000 
617 	 39.912000 	 43.680000 
618 	 39.945000 	 27.340000 
619 	 39.958000 	 20.658000 
620 	 39.993000 	 3.019000 
621 	 40.010000 	 0.000000 
622 	 40.063000 	 0.000000 
623 	 40.013000 	 0.000000 
624 	 39.797000 	 100.000000 
625 	 39.819000 	 90.261000 
626 	 39.856000 	 71.781000 
627 	 39.825000 	 87.236000 
628 	 39.694000 	 100.000000 
629 	 39.643000 	 100.000000 
630 	 39.643000 	 100.000000 
631 	 39.573000 	 100.000000 
632 	 39.528000 	 100.000000 
633 	 39.522000 	 100.000000 
634 	 39.517000 	 100.000000 
635 	 39.469000 	 100.000000 
636 	 39.474000 	 100.000000 
637 	 39.535000 	 100.000000 
638 	 39.499000 	 100.000000 
639 	 39.417000 	 100.000000 
640 	 39.399000 	 100.000000 
641 	 39.359000 	 100.000000 
642 	 39.415000 	 100.000000 
643 	 39.427000 	 100.000000 
644 	 39.380000 	 100.000000 
645 	 39.438000 	 100.000000 
646 	 39.599000 	 100.000000 
647 	 39.674000 	 100.000000 
648 	 39.617000 	 100.000000 
